Frequency (Hz)	Level (dB)
15.625000	-51.461304
31.250000	-45.093269
46.875000	-41.965179
62.500000	-40.709320
78.125000	-39.757248
93.750000	-38.855381
109.375000	-37.848423
125.000000	-37.180161
140.625000	-36.075768
156.250000	-35.270664
171.875000	-35.246635
187.500000	-34.903095
203.125000	-34.533894
218.750000	-34.565815
234.375000	-34.548527
250.000000	-34.859238
265.625000	-34.823193
281.250000	-34.001820
296.875000	-34.394646
312.500000	-35.815647
328.125000	-36.782848
343.750000	-37.361034
359.375000	-37.895515
375.000000	-38.204033
390.625000	-38.656300
406.250000	-39.070602
421.875000	-39.448402
437.500000	-39.874271
453.125000	-40.215874
468.750000	-40.588982
484.375000	-40.984970
500.000000	-41.357552
515.625000	-41.852905
531.250000	-41.927826
546.875000	-41.375931
562.500000	-39.855545
578.125000	-37.828522
593.750000	-38.311615
609.375000	-40.750389
625.000000	-42.415642
640.625000	-43.322735
656.250000	-44.698875
671.875000	-45.547832
687.500000	-46.406162
703.125000	-47.081039
718.750000	-47.698639
734.375000	-48.279160
750.000000	-48.544659
765.625000	-48.693596
781.250000	-49.137810
796.875000	-48.809406
812.500000	-47.698395
828.125000	-46.450775
843.750000	-44.225590
859.375000	-41.288261
875.000000	-39.847969
890.625000	-41.649963
906.250000	-45.376549
921.875000	-48.221275
937.500000	-50.026268
953.125000	-51.222557
968.750000	-52.496975
984.375000	-53.283573
1000.000000	-53.804173
1015.625000	-54.222900
1031.250000	-54.613136
1046.875000	-54.245968
1062.500000	-53.714504
1078.125000	-52.902000
1093.750000	-51.683861
1109.375000	-49.616985
1125.000000	-46.296589
1140.625000	-41.894505
1156.250000	-37.899097
1171.875000	-37.158314
1187.500000	-39.192909
1203.125000	-41.860302
1218.750000	-44.293999
1234.375000	-46.507687
1250.000000	-49.003063
1265.625000	-51.252285
1281.250000	-53.089863
1296.875000	-54.458099
1312.500000	-55.148880
1328.125000	-55.229698
1343.750000	-54.694958
1359.375000	-53.842552
1375.000000	-52.926571
1390.625000	-51.174419
1406.250000	-49.004147
1421.875000	-45.966942
1437.500000	-42.243992
1453.125000	-39.656654
1468.750000	-40.362820
1484.375000	-43.927986
1500.000000	-47.375988
1515.625000	-49.516865
1531.250000	-50.921860
1546.875000	-52.044228
1562.500000	-52.759758
1578.125000	-53.238716
1593.750000	-53.335011
1609.375000	-53.341663
1625.000000	-53.071259
1640.625000	-52.473679
1656.250000	-51.448387
1671.875000	-50.242222
1687.500000	-48.607784
1703.125000	-46.340191
1718.750000	-43.178570
1734.375000	-39.508884
1750.000000	-37.917248
1765.625000	-39.933231
1781.250000	-43.491608
1796.875000	-46.091450
1812.500000	-48.004879
1828.125000	-49.408577
1843.750000	-50.542656
1859.375000	-51.034573
1875.000000	-51.539402
1890.625000	-51.361732
1906.250000	-51.042633
1921.875000	-50.818779
1937.500000	-50.203125
1953.125000	-49.030861
1968.750000	-47.351418
1984.375000	-45.644241
2000.000000	-42.897953
2015.625000	-39.361713
2031.250000	-36.188259
2046.875000	-35.975826
2062.500000	-38.644424
2078.125000	-42.075153
2093.750000	-44.372894
2109.375000	-46.004681
2125.000000	-47.226879
2140.625000	-48.205452
2156.250000	-48.665306
2171.875000	-48.831745
2187.500000	-48.849861
2203.125000	-48.273540
2218.750000	-47.478470
2234.375000	-46.782017
2250.000000	-45.655769
2265.625000	-44.060200
2281.250000	-42.017540
2296.875000	-38.636349
2312.500000	-34.947922
2328.125000	-32.871773
2343.750000	-34.403957
2359.375000	-37.822666
2375.000000	-40.849968
2390.625000	-42.794735
2406.250000	-44.023705
2421.875000	-44.986629
2437.500000	-45.960560
2453.125000	-46.119652
2468.750000	-46.206867
2484.375000	-45.957424
2500.000000	-45.647747
2515.625000	-45.117134
2531.250000	-44.041286
2546.875000	-42.553417
2562.500000	-40.800339
2578.125000	-38.204140
2593.750000	-34.891777
2609.375000	-31.730545
2625.000000	-30.908535
2640.625000	-33.012413
2656.250000	-36.080498
2671.875000	-38.907352
2687.500000	-40.869919
2703.125000	-41.940968
2718.750000	-42.682098
2734.375000	-43.273140
2750.000000	-43.376461
2765.625000	-43.330086
2781.250000	-43.639145
2796.875000	-43.158886
2812.500000	-42.106220
2828.125000	-40.734196
2843.750000	-39.363667
2859.375000	-37.443710
2875.000000	-34.557560
2890.625000	-31.283138
2906.250000	-29.034363
2921.875000	-29.409637
2937.500000	-31.804537
2953.125000	-34.511364
2968.750000	-36.904003
2984.375000	-38.783409
3000.000000	-39.802349
3015.625000	-40.623489
3031.250000	-41.224216
3046.875000	-41.375992
3062.500000	-41.333508
3078.125000	-40.994122
3093.750000	-40.248276
3109.375000	-39.158482
3125.000000	-38.124222
3140.625000	-36.637772
3156.250000	-34.541336
3171.875000	-31.622032
3187.500000	-28.786446
3203.125000	-27.425943
3218.750000	-28.685629
3234.375000	-31.524555
3250.000000	-33.909981
3265.625000	-35.986710
3281.250000	-37.484840
3296.875000	-38.619083
3312.500000	-39.403526
3328.125000	-39.879456
3343.750000	-39.913139
3359.375000	-39.825638
3375.000000	-39.459961
3390.625000	-39.059666
3406.250000	-38.081249
3421.875000	-36.852509
3437.500000	-35.359505
3453.125000	-33.261837
3468.750000	-30.406750
3484.375000	-27.875589
3500.000000	-27.215883
3515.625000	-29.169121
3531.250000	-31.870068
3546.875000	-34.323067
3562.500000	-36.311867
3578.125000	-37.558567
3593.750000	-38.577965
3609.375000	-39.135849
3625.000000	-39.555424
3640.625000	-39.782455
3656.250000	-40.004639
3671.875000	-39.761124
3687.500000	-38.943085
3703.125000	-37.974796
3718.750000	-36.921154
3734.375000	-35.327946
3750.000000	-33.127628
3765.625000	-30.233837
3781.250000	-27.981264
3796.875000	-28.364582
3812.500000	-30.898788
3828.125000	-33.700882
3843.750000	-35.769547
3859.375000	-37.570347
3875.000000	-38.959057
3890.625000	-39.721432
3906.250000	-40.419563
3921.875000	-40.479504
3937.500000	-40.300583
3953.125000	-40.477150
3968.750000	-40.261395
3984.375000	-39.420654
4000.000000	-38.295876
4015.625000	-36.954155
4031.250000	-34.906822
4046.875000	-32.481518
4062.500000	-29.639214
4078.125000	-28.613277
4093.750000	-30.148005
4109.375000	-32.842594
4125.000000	-35.585442
4140.625000	-37.586868
4156.250000	-38.920921
4171.875000	-39.976685
4187.500000	-40.878311
4203.125000	-41.260540
4218.750000	-41.378319
4234.375000	-41.330967
4250.000000	-41.002995
4265.625000	-40.480625
4281.250000	-39.708599
4296.875000	-38.340446
4312.500000	-36.770554
4328.125000	-34.401157
4343.750000	-31.902748
4359.375000	-29.692060
4375.000000	-29.677057
4390.625000	-31.859106
4406.250000	-34.694790
4421.875000	-36.872257
4437.500000	-38.680119
4453.125000	-39.979229
4468.750000	-40.927361
4484.375000	-41.598614
4500.000000	-41.770481
4515.625000	-42.040741
4531.250000	-41.734783
4546.875000	-41.155521
4562.500000	-40.462208
4578.125000	-39.622311
4593.750000	-38.085358
4609.375000	-36.232738
4625.000000	-33.754704
4640.625000	-31.114031
4656.250000	-30.043421
4671.875000	-31.378675
4687.500000	-33.822880
4703.125000	-36.170067
4718.750000	-38.062515
4734.375000	-39.569336
4750.000000	-40.501297
4765.625000	-41.273262
4781.250000	-41.645557
4796.875000	-41.788673
4812.500000	-41.604904
4828.125000	-41.287289
4843.750000	-40.647686
4859.375000	-39.694019
4875.000000	-38.594048
4890.625000	-37.007549
4906.250000	-34.993618
4921.875000	-32.582382
4937.500000	-30.856133
4953.125000	-30.640268
4968.750000	-32.521732
4984.375000	-34.876778
5000.000000	-36.883831
5015.625000	-38.563652
5031.250000	-39.666569
5046.875000	-40.277615
5062.500000	-40.914928
5078.125000	-41.297432
5093.750000	-41.239147
5109.375000	-41.087860
5125.000000	-40.760403
5140.625000	-39.863205
5156.250000	-38.551258
5171.875000	-37.195213
5187.500000	-35.394634
5203.125000	-33.225140
5218.750000	-31.288301
5234.375000	-30.637711
5250.000000	-31.791985
5265.625000	-33.607086
5281.250000	-35.324844
5296.875000	-36.857407
5312.500000	-38.148460
5328.125000	-39.092300
5343.750000	-39.867447
5359.375000	-40.014984
5375.000000	-40.011387
5390.625000	-39.923183
5406.250000	-39.486706
5421.875000	-38.906361
5437.500000	-37.896152
5453.125000	-36.713146
5468.750000	-35.016872
5484.375000	-33.258472
5500.000000	-31.594532
5515.625000	-30.623465
5531.250000	-30.848980
5546.875000	-32.283676
5562.500000	-33.914692
5578.125000	-35.515347
5593.750000	-36.528286
5609.375000	-37.357864
5625.000000	-37.935932
5640.625000	-38.227894
5656.250000	-38.237217
5671.875000	-38.334396
5687.500000	-37.810303
5703.125000	-37.163265
5718.750000	-36.232414
5734.375000	-35.192230
5750.000000	-33.815685
5765.625000	-32.911060
5781.250000	-31.576891
5796.875000	-30.794657
5812.500000	-31.027620
5828.125000	-31.653143
5843.750000	-32.584663
5859.375000	-33.726784
5875.000000	-34.664268
5890.625000	-35.345123
5906.250000	-35.805157
5921.875000	-35.953930
5937.500000	-35.799793
5953.125000	-35.597210
5968.750000	-35.528240
5984.375000	-35.307503
6000.000000	-34.767567
6015.625000	-34.010689
6031.250000	-33.317680
6046.875000	-32.514809
6062.500000	-32.047848
6078.125000	-32.048462
6093.750000	-32.175259
6109.375000	-32.444107
6125.000000	-32.651756
6140.625000	-33.165531
6156.250000	-33.586315
6171.875000	-33.680908
6187.500000	-33.848396
6203.125000	-34.130947
6218.750000	-34.570869
6234.375000	-34.622711
6250.000000	-34.835258
6265.625000	-35.002872
6281.250000	-35.283978
6296.875000	-35.635963
6312.500000	-36.219654
6328.125000	-36.490391
6343.750000	-36.282516
6359.375000	-36.636929
6375.000000	-36.563171
6390.625000	-36.281864
6406.250000	-35.905254
6421.875000	-35.490067
6437.500000	-34.968105
6453.125000	-35.001755
6468.750000	-34.835773
6484.375000	-35.284618
6500.000000	-36.242718
6515.625000	-37.527283
6531.250000	-38.725838
6546.875000	-40.013603
6562.500000	-41.132107
6578.125000	-41.761581
6593.750000	-42.274815
6609.375000	-42.727718
6625.000000	-42.897186
6640.625000	-42.888515
6656.250000	-42.810257
6671.875000	-42.761963
6687.500000	-41.792728
6703.125000	-40.901993
6718.750000	-40.248642
6734.375000	-39.714787
6750.000000	-39.819759
6765.625000	-40.876488
6781.250000	-42.671638
6796.875000	-44.188702
6812.500000	-45.814293
6828.125000	-47.469872
6843.750000	-48.944099
6859.375000	-49.918972
6875.000000	-50.683872
6890.625000	-51.170368
6906.250000	-51.433201
6921.875000	-51.707542
6937.500000	-51.783165
6953.125000	-51.565353
6968.750000	-50.981289
6984.375000	-49.930794
7000.000000	-48.835537
7015.625000	-48.152561
7031.250000	-48.180721
7046.875000	-49.391026
7062.500000	-51.370514
7078.125000	-53.747166
7093.750000	-55.698647
7109.375000	-57.707561
7125.000000	-59.357422
7140.625000	-60.619064
7156.250000	-61.559853
7171.875000	-62.360462
7187.500000	-62.925903
7203.125000	-63.546070
7218.750000	-63.845219
7234.375000	-63.604424
7250.000000	-63.184273
7265.625000	-62.617100
7281.250000	-61.928169
7296.875000	-60.828983
7312.500000	-60.321045
7328.125000	-61.186337
7343.750000	-62.972984
7359.375000	-65.641861
7375.000000	-67.937202
7390.625000	-70.244675
7406.250000	-71.974060
7421.875000	-73.536377
7437.500000	-74.865692
7453.125000	-75.724556
7468.750000	-76.598587
7484.375000	-77.409821
7500.000000	-77.703781
7515.625000	-77.745628
7531.250000	-77.865555
7546.875000	-77.277969
7562.500000	-76.295738
7578.125000	-75.049850
7593.750000	-74.184807
7609.375000	-74.534004
7625.000000	-76.761147
7640.625000	-79.647507
7656.250000	-83.316765
7671.875000	-86.987938
7687.500000	-90.433701
7703.125000	-93.938850
7718.750000	-97.250488
7734.375000	-100.403717
7750.000000	-103.292900
7765.625000	-106.135475
7781.250000	-108.897339
7796.875000	-111.681145
7812.500000	-114.498985
7828.125000	-117.877884
7843.750000	-121.227669
7859.375000	-124.730278
7875.000000	-128.622375
7890.625000	-133.142380
7906.250000	-139.483917
7921.875000	-145.769531
7937.500000	-148.643265
7953.125000	-149.241104
7968.750000	-149.376190
7984.375000	-149.462036
